f [MHz]	U [dBuV]
1,0	-2,14808654785156
3,0	-2,14808654785156
7,9	-2,14808654785156
10,5	99,0689325332642
40,6	99,0689325332642
100,0	99,7067561149597
100,77	99,5631546974182
205,0072	99,5698657035828
408,523	99,5698657035828
666,666	99,7977151870728
802,35	99,7100238800049
995,64	99,7100238800049
1007,4	99,6799683570862
3004,212	99,5967335700989
5093,677	99,4350090026855
8521,56	99,7149348258972
10552,03	99,6705379486084
20532,0	98,332371711731
30663,6421	98,5190410614014
