f [Hz]	U [dB]
100,0;93,18717650011335
200,0;102,07363708621033
300,0;106,44869075407287
400,0;108,71835150967492
500,0;110,27123844359787
600,0;111,16147664320192
700,0;112,51662500324377
800,0;112,77202901635124
900,0;113,70018991192055
1000,0;114,1981170209182
2000,0;115,83557011526207
3000,0;116,6469404396595
4000,0;117,03212999998826
5000,0;117,14775429204335
6000,0;117,55088940029987
7000,0;117,71981796271
8000,0;117,8423915243298
