f [Hz]	U [dB]
100,0;146,02424650846547
200,0;146,02453339197712
300,0;146,02442741869214
400,0;146,02445258915265
500,0;146,02418209496938
600,0;146,0238401650068
700,0;146,02395433552692
800,0;146,02364167074174
900,0;146,02365045050973
1000,0;146,02359424756182
2000,0;146,02194113865548
3000,0;146,02057413974111
4000,0;146,02031348716443
5000,0;146,01936567966908
6000,0;146,01637165446522
7000,0;146,0119132509499
8000,0;146,00712875495412
