f [MHz]	U [dBuV]
6000,0	6,47380828857422
7000,0	6,47380828857422
8000,0	6,47380828857422
9000,0	93,1469202041626
10000,0	93,1469202041626
11000,0	93,1469202041626
12000,0	93,1469202041626
13000,0	93,1469202041626
14000,0	93,1469202041626
15000,0	93,1469202041626
16000,0	93,1469202041626
17000,0	93,1469202041626
18000,0	93,1469202041626
19000,0	93,1469202041626
20000,0	93,1469202041626
