f [Hz]	U [dB]
100,0;85,06907703107565
200,0;95,53477021849774
300,0;100,46645440270737
400,0;103,24631410606642
500,0;104,96838065690577
600,0;106,06609215793503
700,0;106,88815742734161
800,0;107,50256600780163
900,0;107,99054356841395
1000,0;108,38353627366445
2000,0;110,23376043026008
3000,0;110,96544739720807
4000,0;111,42146014156103
5000,0;111,75919907858693
6000,0;112,03213038150601
7000,0;112,2611280609077
8000,0;112,45316909612012
