f [MHz]	U [dBuV]
6000,0	7,2540283203125
7000,0	7,2540283203125
8000,0	93,1000232696533
9000,0	92,7580604553223
10000,0	92,1764249801636
11000,0	92,1773290634155
12000,0	92,1773290634155
13000,0	92,4422931671143
14000,0	91,0030784606934
15000,0	91,2254447937012
16000,0	91,2505168914795
17000,0	91,2392692565918
18000,0	91,2392692565918
19000,0	91,2392692565918
20000,0	91,6647882461548
