f [MHz]	U [dBuV]
6000,0	8,71798706054688
7000,0	8,71798706054688
8000,0	93,2171611785889
9000,0	92,7496156692505
10000,0	92,1798315048218
11000,0	92,7841548919678
12000,0	93,1622676849365
13000,0	92,3179998397827
14000,0	91,0193395614624
15000,0	91,1808023452759
16000,0	91,1866750717163
17000,0	91,1939334869385
18000,0	91,8485832214355
19000,0	91,9144067764282
20000,0	91,7442398071289
