f [Hz]	U [dB]
100,0;113,92803261257357
200,0;113,92861518025647
300,0;113,92808712955727
400,0;113,92891418387279
500,0;113,92766581262055
600,0;113,9279125553803
700,0;113,92757817573475
800,0;113,92753695198691
900,0;113,92769897897217
1000,0;113,92727324388714
2000,0;113,92561726072955
3000,0;113,92409363359106
4000,0;113,92384969987455
5000,0;113,9224274491881
6000,0;113,91945173463198
7000,0;113,9147358235738
8000,0;113,91007346670125
