f [Hz]	U [dB]
30000,0;151,34239610058737
40000,0;151,376174938985
50000,0;151,17156073863444
60000,0;150,8507982028399
70000,0;150,46660527629643
80000,0;150,0461057740835
90000,0;149,6067457947046
100000,0;149,16105931204095
110000,0;148,7390190930413
120000,0;148,30360431048143
130000,0;147,87372544191834
140000,0;147,45549625048352
150000,0;147,0404607872497
200000,0;145,17014056984883
300000,0;142,25065058050592
