f [Hz]	U [dB]
30000,0;66,88964205222715
40000,0;66,37272324359347
50000,0;67,90322153078519
60000,0;65,96313831864599
70000,0;66,1497720950888
80000,0;67,14059579647325
90000,0;73,2993196205283
100000,0;69,68976790018777
110000,0;69,59823744627543
120000,0;69,87766757270396
130000,0;69,70200238554979
140000,0;72,01171666526876
150000,0;77,3597956922639
200000,0;62,689129835732786
300000,0;64,4469727352266
