f [MHz]	U [dBuV]
6000,0	93,4349184036255
7000,0	93,4288282394409
8000,0	93,1492557525635
9000,0	93,1898803710938
10000,0	93,1898803710938
11000,0	92,7857990264893
12000,0	92,7866744995117
13000,0	92,7866744995117
14000,0	92,3207902908325
15000,0	92,3207902908325
16000,0	92,3207902908325
17000,0	93,4288282394409
18000,0	93,4288282394409
19000,0	93,4288282394409
20000,0	91,4635543823242
