f [Hz]	U [dB]
100,0;87,42282927393718
200,0;87,976962167902
300,0;89,19794625026454
400,0;90,37962546935933
500,0;91,7504347044671
600,0;92,83104411467362
700,0;93,55153677480567
800,0;94,0494400411182
900,0;94,45611356801324
1000,0;94,84364162106095
2000,0;96,10407864141646
3000,0;96,7436044533778
4000,0;96,9361749154689
5000,0;97,09611006311313
6000,0;97,22814679296427
7000,0;97,26161792211103
8000,0;97,40104667048959
