f [Hz]	U [dB]
1000,0;120,00693070657255
2000,0;120,00471810244062
3000,0;120,00384945896947
4000,0;120,00260816095569
5000,0;120,0017641882045
6000,0;120,00085351343745
7000,0;119,99986294735368
8000,0;119,99892131106044
9000,0;119,99780379935936
10000,0;119,99756358891766
