f [MHz];U [DBUV
]
18000,0;95,576082
18500,0;95,868464
19000,0;95,825436
19500,0;95,915355
20000,0;96,078151
20500,0;95,923815
21000,0;95,306454
21500,0;95,673284
22000,0;96,074759
22500,0;95,807075
23000,0;95,408003
23500,0;94,944152
24000,0;94,979548
24500,0;95,758850
25000,0;95,785769
25500,0;95,389605
26000,0;95,880960
26500,0;95,428654
