f [MHz];U [DBUV
]
18000,0;95,682052
18500,0;95,862610
19000,0;95,819660
19500,0;95,960070
20000,0;96,129276
20500,0;95,958861
21000,0;95,298568
21500,0;95,694223
22000,0;96,082509
22500,0;95,808632
23000,0;95,429895
23500,0;94,981226
24000,0;94,970790
24500,0;95,755235
25000,0;95,783928
25500,0;95,383067
26000,0;95,881591
26500,0;95,446464
