f [MHz];U [DBUV
]
18000,0;95,501590
18500,0;95,755649
19000,0;95,791617
19500,0;95,925468
20000,0;96,095066
20500,0;95,945010
21000,0;95,311830
21500,0;95,703863
22000,0;96,088956
22500,0;95,818652
23000,0;95,433407
23500,0;94,966342
24000,0;94,967698
24500,0;95,759837
25000,0;95,777852
25500,0;95,361424
26000,0;95,868917
26500,0;95,417159
